Time,Intensity
2155.766,0
2159.968,40
2164.17,20
2168.373,0
2172.575,0
2176.777,50
2180.979,170
2185.182,50
2189.384,0
2193.586,10
2197.788,9660
2201.991,2040
2206.193,610
2210.395,240
2214.597,100
2218.8,80
2223.002,70
2227.204,0
2231.406,0
2235.608,10
2239.811,30
2244.013,0
2248.216,40
2252.418,0
2256.62,0
2260.823,10
2265.025,0
2269.227,30
2273.429,80
